Time 		Total Energy 	PotentialE(V) 	KineticE 	Current Temp 
0.000000 	-60486.371094 	-60630.550781 	144.178787 	0.898310
0.001000 	-60486.328125 	-60668.890625 	182.562927 	1.137464
0.002000 	-60486.257812 	-60787.816406 	301.557709 	1.878864
0.003000 	-60486.101562 	-60988.804688 	502.702118 	3.132100
0.004000 	-60485.933594 	-61274.511719 	788.576782 	4.913251
0.005000 	-60485.691406 	-61648.507812 	1162.815674 	7.244957
0.006000 	-60485.437500 	-62115.539062 	1630.103149 	10.156405
0.007000 	-60485.140625 	-62681.238281 	2196.096924 	13.682847
0.008000 	-60484.839844 	-63352.082031 	2867.241211 	17.864431
0.009000 	-60484.625000 	-64134.910156 	3650.285645 	22.743214
0.010000 	-60484.609375 	-65035.929688 	4551.320312 	28.357136
0.011000 	-60485.039062 	-66058.914062 	5573.875000 	34.728191
0.012000 	-60486.382812 	-67201.960938 	6715.577637 	41.841606
0.013000 	-60489.253906 	-68451.671875 	7962.416992 	49.610073
0.014000 	-60494.722656 	-69774.875000 	9280.153320 	57.820271
0.015000 	-60503.929688 	-71106.664062 	10602.733398 	66.060646
0.016000 	-60517.093750 	-72339.414062 	11822.321289 	73.659325
0.017000 	-60527.871094 	-73335.539062 	12807.666992 	79.798546
0.018000 	-60520.789062 	-74037.500000 	13516.710938 	84.216270
0.019000 	-60503.378906 	-74657.148438 	14153.768555 	88.185471
0.020000 	-60513.121094 	-75512.640625 	14999.518555 	93.454941
0.021000 	-60536.382812 	-76552.703125 	16016.319336 	99.790154
0.022000 	-60544.265625 	-77506.242188 	16961.978516 	105.682106
0.023000 	-60551.644531 	-78261.507812 	17709.863281 	110.341827
0.024000 	-60564.585938 	-78730.171875 	18165.583984 	113.181206
0.025000 	-60552.480469 	-78809.421875 	18256.941406 	113.750412
0.026000 	-60534.351562 	-78711.570312 	18177.216797 	113.253685
0.027000 	-60532.160156 	-78732.656250 	18200.496094 	113.398727
0.028000 	-60527.617188 	-78960.265625 	18432.646484 	114.845146
0.029000 	-60504.304688 	-79508.804688 	19004.500000 	118.408096
0.030000 	-60525.570312 	-80635.195312 	20109.623047 	125.293602
0.031000 	-60562.835938 	-81991.867188 	21429.033203 	133.514221
0.032000 	-60565.445312 	-82952.648438 	22387.201172 	139.484116
0.033000 	-60554.886719 	-83353.945312 	22799.058594 	142.050217
0.034000 	-60529.570312 	-83343.179688 	22813.607422 	142.140854
0.035000 	-60525.398438 	-83293.078125 	22767.677734 	141.854691
0.036000 	-60550.363281 	-83271.398438 	22721.035156 	141.564087
0.037000 	-60545.714844 	-82983.234375 	22437.519531 	139.797623
0.038000 	-60540.539062 	-82460.500000 	21919.962891 	136.572983
0.039000 	-60534.078125 	-81831.664062 	21297.583984 	132.695221
0.040000 	-60515.742188 	-81290.984375 	20775.240234 	129.440750
0.041000 	-60514.687500 	-81130.937500 	20616.250000 	128.450150
0.042000 	-60522.093750 	-81434.671875 	20912.578125 	130.296432
0.043000 	-60565.714844 	-82025.554688 	21459.839844 	133.706161
0.044000 	-60572.445312 	-82322.664062 	21750.218750 	135.515381
0.045000 	-60548.765625 	-82198.101562 	21649.333984 	134.886810
0.046000 	-60549.945312 	-81975.765625 	21425.822266 	133.494217
0.047000 	-60559.773438 	-81726.539062 	21166.763672 	131.880142
0.048000 	-60546.046875 	-81452.718750 	20906.671875 	130.259644
0.049000 	-60521.742188 	-81408.664062 	20886.923828 	130.136597
0.050000 	-60561.968750 	-81885.210938 	21323.242188 	132.855087
0.051000 	-60596.199219 	-82259.312500 	21663.113281 	134.972672
0.052000 	-60566.140625 	-81887.937500 	21321.798828 	132.846100
0.053000 	-60529.492188 	-81147.273438 	20617.781250 	128.459702
0.054000 	-60521.605469 	-80616.734375 	20095.128906 	125.203293
0.055000 	-60525.601562 	-80559.593750 	20033.990234 	124.822372
0.056000 	-60568.046875 	-80902.265625 	20334.218750 	126.692955
0.057000 	-60569.250000 	-81113.093750 	20543.845703 	127.999039
0.058000 	-60541.226562 	-81271.976562 	20730.751953 	129.163559
0.059000 	-60587.875000 	-81605.796875 	21017.919922 	130.952774
0.060000 	-60541.535156 	-81610.757812 	21069.222656 	131.272415
0.061000 	-60530.992188 	-81722.914062 	21191.923828 	132.036911
0.062000 	-60560.609375 	-82071.500000 	21510.890625 	134.024246
0.063000 	-60565.671875 	-82257.656250 	21691.986328 	135.152557
0.064000 	-60532.632812 	-82203.250000 	21670.617188 	135.019424
0.065000 	-60533.437500 	-82263.015625 	21729.578125 	135.386780
0.066000 	-60536.226562 	-82424.601562 	21888.375000 	136.376175
0.067000 	-60539.148438 	-82571.101562 	22031.953125 	137.270737
0.068000 	-60529.882812 	-82642.960938 	22113.076172 	137.776169
0.069000 	-60511.980469 	-82763.656250 	22251.675781 	138.639725
0.070000 	-60528.605469 	-83112.257812 	22583.652344 	140.708115
0.071000 	-60550.695312 	-83445.007812 	22894.314453 	142.643707
0.072000 	-60546.683594 	-83439.148438 	22892.464844 	142.632187
0.073000 	-60523.894531 	-83142.617188 	22618.722656 	140.926620
0.074000 	-60515.179688 	-82873.359375 	22358.181641 	139.303314
0.075000 	-60538.867188 	-82748.210938 	22209.341797 	138.375961
0.076000 	-60559.824219 	-82462.101562 	21902.277344 	136.462784
0.077000 	-60550.828125 	-81756.179688 	21205.353516 	132.120590
0.078000 	-60526.730469 	-80814.445312 	20287.714844 	126.403206
0.079000 	-60504.195312 	-80076.156250 	19571.960938 	121.943680
0.080000 	-60511.914062 	-79899.351562 	19387.435547 	120.793991
0.081000 	-60534.445312 	-80185.148438 	19650.705078 	122.434303
0.082000 	-60547.742188 	-80559.656250 	20011.916016 	124.684837
0.083000 	-60548.773438 	-80761.304688 	20212.531250 	125.934776
0.084000 	-60535.136719 	-80738.203125 	20203.066406 	125.875801
0.085000 	-60520.929688 	-80659.429688 	20138.500000 	125.473518
0.086000 	-60531.593750 	-80672.382812 	20140.789062 	125.487785
0.087000 	-60542.093750 	-80606.671875 	20064.580078 	125.012962
0.088000 	-60543.964844 	-80261.093750 	19717.128906 	122.848152
0.089000 	-60524.351562 	-79620.203125 	19095.849609 	118.977257
0.090000 	-60504.226562 	-78968.812500 	18464.585938 	115.044151
0.091000 	-60503.796875 	-78598.101562 	18094.306641 	112.737114
0.092000 	-60509.835938 	-78517.304688 	18007.468750 	112.196068
0.093000 	-60514.675781 	-78604.687500 	18090.011719 	112.710350
0.094000 	-60522.183594 	-78720.992188 	18198.808594 	113.388214
0.095000 	-60519.031250 	-78716.031250 	18197.001953 	113.376961
0.096000 	-60513.222656 	-78582.031250 	18068.808594 	112.578247
0.097000 	-60510.015625 	-78376.914062 	17866.898438 	111.320236
0.098000 	-60506.992188 	-78142.781250 	17635.791016 	109.880318
0.099000 	-60508.820312 	-77914.429688 	17405.609375 	108.446167
0.100000 	-60512.492188 	-77673.195312 	17160.703125 	106.920265
0.101000 	-60509.164062 	-77390.351562 	16881.185547 	105.178726
0.102000 	-60498.398438 	-77144.953125 	16646.552734 	103.716843
0.103000 	-60507.734375 	-77084.593750 	16576.857422 	103.282600
0.104000 	-60530.031250 	-77084.648438 	16554.617188 	103.144035
0.105000 	-60527.867188 	-76856.648438 	16328.781250 	101.736954
0.106000 	-60505.332031 	-76437.398438 	15932.067383 	99.265221
0.107000 	-60499.617188 	-76133.453125 	15633.833984 	97.407066
0.108000 	-60506.128906 	-76049.468750 	15543.340820 	96.843246
0.109000 	-60513.296875 	-76090.914062 	15577.615234 	97.056793
0.110000 	-60508.859375 	-76162.843750 	15653.982422 	97.532600
0.111000 	-60502.359375 	-76327.195312 	15824.836914 	98.597115
0.112000 	-60515.078125 	-76637.828125 	16122.749023 	100.453262
0.113000 	-60514.640625 	-76921.171875 	16406.531250 	102.221382
0.114000 	-60507.421875 	-77133.765625 	16626.343750 	103.590927
0.115000 	-60506.832031 	-77342.015625 	16835.183594 	104.892113
0.116000 	-60509.402344 	-77546.789062 	17037.386719 	106.151939
0.117000 	-60510.812500 	-77706.664062 	17195.853516 	107.139275
0.118000 	-60513.382812 	-77792.179688 	17278.794922 	107.656044
0.119000 	-60515.703125 	-77766.328125 	17250.626953 	107.480545
0.120000 	-60507.136719 	-77620.695312 	17113.558594 	106.626534
0.121000 	-60495.339844 	-77499.726562 	17004.386719 	105.946335
0.122000 	-60508.699219 	-77557.125000 	17048.425781 	106.220718
0.123000 	-60524.011719 	-77624.828125 	17100.816406 	106.547142
0.124000 	-60515.765625 	-77493.718750 	16977.955078 	105.781654
0.125000 	-60502.984375 	-77255.031250 	16752.044922 	104.374115
0.126000 	-60507.203125 	-77076.117188 	16568.914062 	103.233109
0.127000 	-60519.781250 	-76919.320312 	16399.537109 	102.177803
0.128000 	-60523.167969 	-76640.796875 	16117.629883 	100.421371
0.129000 	-60512.625000 	-76235.093750 	15722.470703 	97.959320
0.130000 	-60510.941406 	-75882.000000 	15371.057617 	95.769829
0.131000 	-60513.003906 	-75656.328125 	15143.323242 	94.350922
0.132000 	-60500.742188 	-75582.890625 	15082.148438 	93.969772
0.133000 	-60511.933594 	-75769.875000 	15257.942383 	95.065063
0.134000 	-60520.984375 	-76041.742188 	15520.759766 	96.702553
0.135000 	-60517.335938 	-76220.828125 	15703.490234 	97.841064
0.136000 	-60510.703125 	-76312.859375 	15802.157227 	98.455811
0.137000 	-60510.320312 	-76384.734375 	15874.413086 	98.905998
0.138000 	-60518.203125 	-76419.203125 	15901.000977 	99.071655
0.139000 	-60521.398438 	-76302.976562 	15781.576172 	98.327576
0.140000 	-60514.765625 	-76002.242188 	15487.478516 	96.495193
0.141000 	-60495.003906 	-75670.171875 	15175.166992 	94.549324
0.142000 	-60500.519531 	-75610.156250 	15109.637695 	94.141045
0.143000 	-60524.074219 	-75786.375000 	15262.299805 	95.092209
0.144000 	-60524.882812 	-75920.257812 	15395.373047 	95.921326
0.145000 	-60515.289062 	-75986.382812 	15471.095703 	96.393120
0.146000 	-60499.152344 	-76164.203125 	15665.050781 	97.601562
0.147000 	-60524.949219 	-76584.351562 	16059.402344 	100.058578
0.148000 	-60527.328125 	-76882.750000 	16355.419922 	101.902931
0.149000 	-60513.945312 	-76923.640625 	16409.695312 	102.241089
0.150000 	-60504.558594 	-76844.289062 	16339.731445 	101.805183
0.151000 	-60501.046875 	-76769.687500 	16268.640625 	101.362244
0.152000 	-70693.265625 	-76864.765625 	6171.502930 	38.451733
0.153000 	-68513.500000 	-77194.179688 	8680.675781 	54.085209
0.154000 	-69744.843750 	-76906.625000 	7161.777344 	44.621666
0.155000 	-70802.335938 	-77189.101562 	6386.762207 	39.792912
0.156000 	-69999.515625 	-77610.289062 	7610.775391 	47.419163
0.157000 	-70973.539062 	-78006.312500 	7032.771973 	43.817894
0.158000 	-71508.101562 	-78319.710938 	6811.609375 	42.439934
0.159000 	-72605.429688 	-78513.257812 	5907.831543 	36.808918
0.160000 	-71417.875000 	-78284.148438 	6866.272461 	42.780514
0.161000 	-72018.656250 	-78511.257812 	6492.605469 	40.452370
0.162000 	-70578.257812 	-78240.281250 	7662.025391 	47.738476
0.163000 	-70829.117188 	-77840.210938 	7011.090332 	43.682804
0.164000 	-69958.117188 	-78252.117188 	8294.002930 	51.676029
0.165000 	-69596.734375 	-77826.859375 	8230.125977 	51.278042
0.166000 	-68611.046875 	-78263.750000 	9652.700195 	60.141434
0.167000 	-72035.445312 	-77952.671875 	5917.226562 	36.867455
0.168000 	-71858.421875 	-77605.726562 	5747.306641 	35.808765
0.169000 	-71676.898438 	-77955.335938 	6278.435547 	39.117977
0.170000 	-71682.429688 	-78265.531250 	6583.100098 	41.016201
0.171000 	-71219.546875 	-77938.421875 	6718.878906 	41.862175
0.172000 	-68341.460938 	-77443.757812 	9102.295898 	56.712124
0.173000 	-70306.507812 	-77907.445312 	7600.939453 	47.357880
0.174000 	-69369.664062 	-78296.187500 	8926.524414 	55.616974
0.175000 	-71939.375000 	-78497.898438 	6558.525391 	40.863087
0.176000 	-70366.406250 	-78583.406250 	8217.001953 	51.196274
0.177000 	-72135.875000 	-78530.351562 	6394.474609 	39.840961
0.178000 	-71532.976562 	-78576.851562 	7043.875488 	43.887074
0.179000 	-71955.718750 	-78566.226562 	6610.510742 	41.186981
0.180000 	-72246.843750 	-78603.109375 	6356.269043 	39.602921
0.181000 	-71666.242188 	-78555.085938 	6888.844727 	42.921150
0.182000 	-70783.578125 	-78592.109375 	7808.529785 	48.651276
0.183000 	-70946.976562 	-78695.648438 	7748.671387 	48.278328
0.184000 	-72145.125000 	-78868.273438 	6723.151855 	41.888798
0.185000 	-71193.328125 	-78667.304688 	7473.973145 	46.566811
0.186000 	-70608.664062 	-78866.156250 	8257.492188 	51.448551
0.187000 	-69577.593750 	-78639.218750 	9061.627930 	56.458740
0.188000 	-70605.890625 	-78868.554688 	8262.660156 	51.480747
0.189000 	-70916.062500 	-79118.179688 	8202.115234 	51.103523
0.190000 	-71198.414062 	-79370.656250 	8172.242188 	50.917397
0.191000 	-70109.828125 	-79085.460938 	8975.630859 	55.922935
0.192000 	-72291.875000 	-78856.476562 	6564.602051 	40.900948
0.193000 	-69077.484375 	-79079.164062 	10001.677734 	62.315750
0.194000 	-71726.640625 	-78925.757812 	7199.117188 	44.854313
0.195000 	-71025.015625 	-79074.531250 	8049.512695 	50.152725
0.196000 	-72326.039062 	-78958.953125 	6632.912109 	41.326553
0.197000 	-72672.507812 	-78902.390625 	6229.885254 	38.815483
0.198000 	-70990.242188 	-78863.625000 	7873.386230 	49.055367
0.199000 	-72723.773438 	-78848.351562 	6124.579102 	38.159370
0.200000 	-70509.304688 	-78817.187500 	8307.880859 	51.762497
0.201000 	-72571.421875 	-78726.218750 	6154.800781 	38.347668
0.202000 	-69228.929688 	-78792.093750 	9563.163086 	59.583572
0.203000 	-72258.812500 	-78772.250000 	6513.436035 	40.582157
0.204000 	-71780.742188 	-78772.296875 	6991.552246 	43.561073
0.205000 	-72859.601562 	-78827.875000 	5968.270996 	37.185490
0.206000 	-70798.273438 	-78727.617188 	7929.345703 	49.404022
0.207000 	-69594.312500 	-78816.500000 	9222.191406 	57.459137
0.208000 	-73427.437500 	-78917.421875 	5489.987793 	34.205532
0.209000 	-71785.382812 	-79093.835938 	7308.450195 	45.535515
0.210000 	-72165.765625 	-79303.335938 	7137.571777 	44.470852
0.211000 	-72076.078125 	-79553.945312 	7477.871094 	46.591099
0.212000 	-71377.953125 	-79818.531250 	8440.579102 	52.589279
0.213000 	-71568.984375 	-80040.195312 	8471.209961 	52.780125
0.214000 	-72451.937500 	-80192.968750 	7741.032715 	48.230732
0.215000 	-72306.593750 	-80036.703125 	7730.107422 	48.162663
0.216000 	-73469.820312 	-80198.125000 	6728.304688 	41.920902
0.217000 	-73769.078125 	-80321.328125 	6552.247070 	40.823971
0.218000 	-74159.226562 	-80208.140625 	6048.916504 	37.687954
0.219000 	-72640.187500 	-80035.648438 	7395.462891 	46.077652
0.220000 	-72567.492188 	-79822.890625 	7255.400391 	45.204987
0.221000 	-71666.218750 	-79577.750000 	7911.529297 	49.293018
0.222000 	-72334.140625 	-79822.257812 	7488.119141 	46.654949
0.223000 	-73226.734375 	-79606.210938 	6379.473145 	39.747498
0.224000 	-71865.234375 	-79821.773438 	7956.538574 	49.573448
0.225000 	-71902.601562 	-80013.070312 	8110.465332 	50.532494
0.226000 	-72554.164062 	-80155.632812 	7601.467285 	47.361168
0.227000 	-74419.742188 	-80256.757812 	5837.012695 	36.367680
0.228000 	-73383.226562 	-80361.429688 	6978.202637 	43.477898
0.229000 	-71334.703125 	-80491.265625 	9156.564453 	57.050247
0.230000 	-75663.773438 	-80454.976562 	4791.201172 	29.851721
0.231000 	-73312.640625 	-80453.781250 	7141.139648 	44.493080
0.232000 	-73017.835938 	-80580.296875 	7562.459961 	47.118130
0.233000 	-71447.156250 	-80417.835938 	8970.681641 	55.892097
0.234000 	-73503.382812 	-80389.484375 	6886.103027 	42.904068
0.235000 	-72545.851562 	-80404.265625 	7858.412598 	48.962070
0.236000 	-75032.492188 	-80430.781250 	5398.290527 	33.634209
0.237000 	-73073.578125 	-80362.031250 	7288.451172 	45.410912
0.238000 	-72494.796875 	-80423.664062 	7928.866211 	49.401035
0.239000 	-73383.804688 	-80379.859375 	6996.052734 	43.589115
0.240000 	-73981.968750 	-80431.828125 	6449.859375 	40.186039
0.241000 	-72881.507812 	-80502.765625 	7621.258301 	47.484474
0.242000 	-73283.359375 	-80466.875000 	7183.514648 	44.757099
0.243000 	-73373.281250 	-80503.921875 	7130.637207 	44.427647
0.244000 	-73618.859375 	-80471.296875 	6852.439453 	42.694328
0.245000 	-73123.320312 	-80332.164062 	7208.842773 	44.914909
0.246000 	-73437.687500 	-80472.898438 	7035.208008 	43.833073
0.247000 	-72163.171875 	-80301.242188 	8138.071289 	50.704494
0.248000 	-72604.546875 	-80474.421875 	7869.876465 	49.033497
0.249000 	-73888.179688 	-80333.843750 	6445.664062 	40.159901
0.250000 	-71652.718750 	-80461.578125 	8808.859375 	54.883858
0.251000 	-73280.625000 	-80449.492188 	7168.869141 	44.665852
0.252000 	-73874.671875 	-80367.609375 	6492.938965 	40.454449
0.253000 	-73472.671875 	-80328.625000 	6855.950195 	42.716202
0.254000 	-72408.804688 	-80352.132812 	7943.330566 	49.491158
0.255000 	-74313.156250 	-80412.492188 	6099.339844 	38.002117
0.256000 	-71934.070312 	-80401.992188 	8467.921875 	52.759640
0.257000 	-74378.109375 	-80306.914062 	5928.802246 	36.939579
0.258000 	-72834.351562 	-80149.453125 	7315.098633 	45.576939
0.259000 	-73319.476562 	-80308.539062 	6989.060547 	43.545547
0.260000 	-73098.953125 	-80143.867188 	7044.912109 	43.893532
0.261000 	-72762.765625 	-80307.484375 	7544.721191 	47.007610
0.262000 	-72042.382812 	-80126.234375 	8083.849121 	50.366661
0.263000 	-71875.109375 	-80307.031250 	8431.920898 	52.535332
0.264000 	-73859.992188 	-80397.648438 	6537.655273 	40.733055
0.265000 	-71699.570312 	-80386.250000 	8686.680664 	54.122620
0.266000 	-71914.164062 	-80400.656250 	8486.489258 	52.875324
0.267000 	-71479.304688 	-80263.398438 	8784.096680 	54.729576
0.268000 	-72434.257812 	-80041.914062 	7607.659180 	47.399746
0.269000 	-75114.750000 	-80258.234375 	5143.480469 	32.046608
0.270000 	-71779.265625 	-80484.343750 	8705.082031 	54.237270
0.271000 	-73345.125000 	-80300.500000 	6955.373047 	43.335659
0.272000 	-73151.687500 	-80483.976562 	7332.287598 	45.684036
0.273000 	-72743.343750 	-80289.664062 	7546.319824 	47.017570
0.274000 	-71549.070312 	-80481.171875 	8932.101562 	55.651722
0.275000 	-74098.992188 	-80527.882812 	6428.889160 	40.055386
0.276000 	-72976.562500 	-80459.437500 	7482.877441 	46.622288
0.277000 	-71569.242188 	-80235.968750 	8666.723633 	53.998280
0.278000 	-71453.140625 	-80459.273438 	9006.131836 	56.112972
0.279000 	-73138.351562 	-80280.226562 	7141.875488 	44.497665
0.280000 	-74606.664062 	-80084.437500 	5477.772949 	34.129425
0.281000 	-72675.000000 	-80280.000000 	7604.999023 	47.383171
0.282000 	-72480.757812 	-80398.812500 	7918.052734 	49.333660
0.283000 	-73489.242188 	-80302.031250 	6812.788574 	42.447281
0.284000 	-72129.140625 	-80386.820312 	8257.679688 	51.449718
0.285000 	-72241.882812 	-80342.914062 	8101.030273 	50.473709
0.286000 	-73973.507812 	-80252.156250 	6278.651367 	39.119324
0.287000 	-72981.304688 	-80331.578125 	7350.271973 	45.796085
0.288000 	-73666.210938 	-80364.789062 	6698.574707 	41.735668
0.289000 	-72952.859375 	-80316.117188 	7363.255371 	45.876980
0.290000 	-73281.757812 	-80368.632812 	7086.875977 	44.154991
0.291000 	-73673.070312 	-80344.460938 	6671.387207 	41.566277
0.292000 	-73319.257812 	-80278.343750 	6959.083984 	43.358780
0.293000 	-72446.656250 	-80265.484375 	7818.826172 	48.715427
0.294000 	-72779.140625 	-80283.328125 	7504.191406 	46.755085
0.295000 	-73730.203125 	-80362.398438 	6632.196289 	41.322094
0.296000 	-72667.617188 	-80388.304688 	7720.687012 	48.103970
0.297000 	-72051.257812 	-80292.539062 	8241.284180 	51.347565
0.298000 	-71635.007812 	-80087.234375 	8452.228516 	52.661861
0.299000 	-72115.500000 	-79827.851562 	7712.353516 	48.052048
0.300000 	-72387.242188 	-79563.250000 	7176.008789 	44.710335
0.301000 	-71375.062500 	-79294.453125 	7919.392090 	49.342007
0.302000 	-71780.789062 	-79562.468750 	7781.677246 	48.483971
0.303000 	-72001.429688 	-79301.687500 	7300.259766 	45.484486
0.304000 	-71825.328125 	-79562.804688 	7737.475098 	48.208569
0.305000 	-72540.578125 	-79325.031250 	6784.453125 	42.270737
0.306000 	-71918.773438 	-79563.273438 	7644.500488 	47.629288
0.307000 	-71594.531250 	-79315.062500 	7720.531250 	48.102997
0.308000 	-72141.664062 	-79105.179688 	6963.514160 	43.386379
0.309000 	-71401.078125 	-78916.625000 	7515.544434 	46.825821
0.310000 	-71627.328125 	-78780.210938 	7152.882812 	44.566250
0.311000 	-70717.726562 	-78719.070312 	8001.344238 	49.852612
0.312000 	-71486.296875 	-78789.023438 	7302.728027 	45.499863
0.313000 	-71863.843750 	-78946.554688 	7082.708984 	44.129028
0.314000 	-71949.093750 	-79152.953125 	7203.861816 	44.883873
0.315000 	-70881.742188 	-78913.859375 	8032.115723 	50.044334
0.316000 	-73117.679688 	-79153.226562 	6035.549805 	37.604671
0.317000 	-71810.250000 	-78864.898438 	7054.650879 	43.954212
0.318000 	-73685.445312 	-78707.765625 	5022.320801 	31.291718
0.319000 	-70015.351562 	-78837.523438 	8822.172852 	54.966808
0.320000 	-72589.085938 	-79018.593750 	6429.507812 	40.059238
0.321000 	-70937.906250 	-78784.820312 	7846.910645 	48.890408
0.322000 	-72202.625000 	-78663.695312 	6461.066895 	40.255867
0.323000 	-70428.148438 	-78766.812500 	8338.663086 	51.954288
0.324000 	-70383.351562 	-78662.757812 	8279.405273 	51.585079
0.325000 	-72287.164062 	-78785.882812 	6498.715332 	40.490437
0.326000 	-71610.546875 	-78643.960938 	7033.415039 	43.821899
0.327000 	-71090.453125 	-78781.562500 	7691.109375 	47.919685
0.328000 	-71664.640625 	-78659.015625 	6994.373535 	43.578651
0.329000 	-71626.625000 	-78666.046875 	7039.421875 	43.859325
0.330000 	-71278.523438 	-78743.375000 	7464.854980 	46.509998
0.331000 	-72008.125000 	-78681.585938 	6673.460449 	41.579193
0.332000 	-72866.953125 	-78753.367188 	5886.412598 	36.675468
0.333000 	-72570.218750 	-78811.984375 	6241.767578 	38.889519
0.334000 	-72388.281250 	-78753.015625 	6364.736816 	39.655682
0.335000 	-73222.539062 	-78582.382812 	5359.843750 	33.394665
0.336000 	-72075.335938 	-78303.390625 	6228.056152 	38.804089
0.337000 	-70364.765625 	-78593.023438 	8228.256836 	51.266399
0.338000 	-71493.671875 	-78718.781250 	7225.110352 	45.016262
0.339000 	-72249.656250 	-78695.257812 	6445.602539 	40.159519
0.340000 	-70933.710938 	-78544.500000 	7610.792480 	47.419270
0.341000 	-72452.406250 	-78703.492188 	6251.088867 	38.947594
0.342000 	-71108.460938 	-78753.179688 	7644.719727 	47.630653
0.343000 	-71014.671875 	-78612.929688 	7598.254395 	47.341148
0.344000 	-69469.882812 	-78274.218750 	8804.336914 	54.855682
0.345000 	-68800.195312 	-77794.148438 	8993.956055 	56.037109
0.346000 	-70951.132812 	-78242.703125 	7291.570312 	45.430344
0.347000 	-69551.414062 	-77731.601562 	8180.187500 	50.966900
0.348000 	-69163.390625 	-78249.015625 	9085.627930 	56.608273
0.349000 	-70414.976562 	-77786.351562 	7371.375000 	45.927570
0.350000 	-70520.578125 	-77377.906250 	6857.329590 	42.724796
0.351000 	-70771.890625 	-77783.320312 	7011.433594 	43.684944
0.352000 	-70577.109375 	-77369.398438 	6792.286621 	42.319542
0.353000 	-70861.593750 	-77163.781250 	6302.188965 	39.265976
0.354000 	-69191.000000 	-77203.851562 	8012.851074 	49.924305
0.355000 	-70547.398438 	-77450.335938 	6902.935059 	43.008942
0.356000 	-70212.976562 	-77820.585938 	7607.605957 	47.399414
0.357000 	-71269.000000 	-77495.789062 	6226.792480 	38.796215
0.358000 	-70057.953125 	-77262.578125 	7204.627930 	44.888649
0.359000 	-69412.492188 	-77221.820312 	7809.326660 	48.656242
0.360000 	-68975.695312 	-77256.203125 	8280.505859 	51.591938
0.361000 	-66819.843750 	-77466.046875 	10646.201172 	66.331474
0.362000 	-69616.304688 	-77713.195312 	8096.892090 	50.447926
0.363000 	-72107.164062 	-77549.062500 	5441.896484 	33.905895
0.364000 	-69697.890625 	-77487.726562 	7789.834473 	48.534794
0.365000 	-70916.093750 	-77564.109375 	6648.016113 	41.420662
0.366000 	-70183.875000 	-77751.062500 	7567.186035 	47.147575
0.367000 	-70593.328125 	-77951.406250 	7358.082031 	45.844749
0.368000 	-71623.046875 	-78131.515625 	6508.472168 	40.551228
0.369000 	-71337.453125 	-78299.601562 	6962.146484 	43.377861
0.370000 	-72676.421875 	-78429.421875 	5752.996094 	35.844212
0.371000 	-71687.734375 	-78525.953125 	6838.220215 	42.605732
0.372000 	-72178.828125 	-78556.710938 	6377.878906 	39.737564
0.373000 	-73348.898438 	-78590.453125 	5241.556152 	32.657669
0.374000 	-70818.773438 	-78708.148438 	7889.375977 	49.154991
0.375000 	-72180.757812 	-78936.539062 	6755.779297 	42.092083
0.376000 	-71445.304688 	-78684.257812 	7238.955566 	45.102528
0.377000 	-72851.945312 	-78933.031250 	6081.083008 	37.888367
0.378000 	-73318.671875 	-79297.734375 	5979.062988 	37.252728
0.379000 	-71845.007812 	-79705.304688 	7860.296387 	48.973808
0.380000 	-71830.812500 	-79297.328125 	7466.515137 	46.520344
0.381000 	-71481.062500 	-79709.890625 	8228.827148 	51.269951
0.382000 	-72902.328125 	-79353.500000 	6451.168945 	40.194199
0.383000 	-73356.531250 	-79018.468750 	5661.937988 	35.276871
0.384000 	-73069.085938 	-79357.101562 	6288.018066 	39.177681
0.385000 	-72371.484375 	-79711.843750 	7340.358887 	45.734322
0.386000 	-73267.921875 	-79391.734375 	6123.812988 	38.154598
0.387000 	-72244.390625 	-79722.507812 	7478.117676 	46.592632
0.388000 	-72718.968750 	-79408.812500 	6689.846680 	41.681286
0.389000 	-71311.906250 	-79032.976562 	7721.066406 	48.106331
0.390000 	-73592.687500 	-78797.773438 	5205.089355 	32.430462
0.391000 	-72399.500000 	-78690.539062 	6291.039551 	39.196507
0.392000 	-71072.093750 	-78785.789062 	7713.696289 	48.060413
0.393000 	-72850.921875 	-78730.179688 	5879.253906 	36.630867
0.394000 	-72155.585938 	-78776.398438 	6620.814941 	41.251183
0.395000 	-70111.101562 	-78688.687500 	8577.586914 	53.442909
0.396000 	-70740.593750 	-78782.398438 	8041.807129 	50.104717
0.397000 	-71419.710938 	-78703.023438 	7283.309570 	45.378876
0.398000 	-71990.648438 	-78670.820312 	6680.172852 	41.621014
0.399000 	-71393.632812 	-78592.023438 	7198.389648 	44.849781
0.400000 	-71046.656250 	-78666.687500 	7620.033691 	47.476845
0.401000 	-72475.859375 	-78697.406250 	6221.548340 	38.763542
0.402000 	-70531.398438 	-78626.609375 	8095.209961 	50.437447
0.403000 	-70473.375000 	-78696.796875 	8223.422852 	51.236279
0.404000 	-71757.492188 	-78788.976562 	7031.483398 	43.809864
0.405000 	-71646.851562 	-79004.632812 	7357.783691 	45.842888
0.406000 	-69469.500000 	-79321.937500 	9852.439453 	61.385914
0.407000 	-72972.757812 	-79109.562500 	6136.806152 	38.235554
0.408000 	-71827.757812 	-78971.132812 	7143.377441 	44.507023
0.409000 	-72310.046875 	-78923.062500 	6613.019043 	41.202610
0.410000 	-70974.070312 	-78955.046875 	7980.979492 	49.725727
0.411000 	-69925.406250 	-78905.898438 	8980.488281 	55.953197
0.412000 	-71793.023438 	-78974.468750 	7181.442871 	44.744194
0.413000 	-71716.203125 	-79120.468750 	7404.265137 	46.132492
0.414000 	-71742.226562 	-78975.062500 	7232.835938 	45.064400
0.415000 	-69972.687500 	-78871.687500 	8898.998047 	55.445469
0.416000 	-69750.921875 	-78725.640625 	8974.715820 	55.917233
0.417000 	-72249.968750 	-78554.421875 	6304.452637 	39.280079
0.418000 	-71522.460938 	-78722.164062 	7199.701660 	44.857956
0.419000 	-72284.882812 	-78576.328125 	6291.446777 	39.199047
0.420000 	-70844.359375 	-78381.500000 	7537.141602 	46.960384
0.421000 	-71100.937500 	-78157.328125 	7056.390137 	43.965046
0.422000 	-71977.765625 	-77962.945312 	5985.180176 	37.290844
0.423000 	-70869.460938 	-77778.843750 	6909.383789 	43.049122
0.424000 	-70499.007812 	-77597.234375 	7098.228027 	44.225719
0.425000 	-70139.359375 	-77776.445312 	7637.088379 	47.583107
0.426000 	-69911.437500 	-77942.070312 	8030.628906 	50.035072
0.427000 	-69790.906250 	-78086.585938 	8295.676758 	51.686459
0.428000 	-70671.406250 	-77965.593750 	7294.190430 	45.446671
0.429000 	-72063.937500 	-78101.093750 	6037.153320 	37.614662
0.430000 	-71829.171875 	-77958.085938 	6128.910156 	38.186356
0.431000 	-72147.617188 	-78104.000000 	5956.382324 	37.111416
0.432000 	-70131.984375 	-77893.250000 	7761.262695 	48.356777
0.433000 	-68891.250000 	-77645.023438 	8753.777344 	54.540668
0.434000 	-69830.484375 	-77405.382812 	7574.895508 	47.195610
0.435000 	-71455.335938 	-77649.523438 	6194.189941 	38.593082
0.436000 	-70447.203125 	-77957.937500 	7510.738281 	46.795876
0.437000 	-71456.445312 	-77689.976562 	6233.530762 	38.838200
0.438000 	-71386.117188 	-77957.976562 	6571.858887 	40.946163
0.439000 	-70832.968750 	-78240.109375 	7407.140137 	46.150406
0.440000 	-69743.906250 	-78479.742188 	8735.832031 	54.428860
0.441000 	-69512.531250 	-78622.351562 	9109.821289 	56.759010
0.442000 	-70528.609375 	-78682.234375 	8153.626465 	50.801411
0.443000 	-70628.039062 	-78624.250000 	7996.209473 	49.820621
0.444000 	-71980.546875 	-78698.703125 	6718.154297 	41.857658
0.445000 	-70796.187500 	-78774.851562 	7978.662109 	49.711292
0.446000 	-72756.664062 	-78896.968750 	6140.303711 	38.257343
0.447000 	-69337.046875 	-78686.734375 	9349.685547 	58.253494
0.448000 	-70801.890625 	-78899.765625 	8097.878418 	50.454071
0.449000 	-72185.218750 	-78726.335938 	6541.119629 	40.754639
0.450000 	-72642.164062 	-78643.867188 	6001.703613 	37.393791
0.451000 	-72684.929688 	-78726.843750 	6041.917480 	37.644344
0.452000 	-71256.773438 	-78898.390625 	7641.617676 	47.611324
0.453000 	-72227.390625 	-79140.046875 	6912.657715 	43.069519
0.454000 	-71107.453125 	-79435.593750 	8328.140625 	51.888725
0.455000 	-73219.929688 	-79207.507812 	5987.574707 	37.305763
0.456000 	-70513.484375 	-79441.804688 	8928.321289 	55.628170
0.457000 	-72782.828125 	-79266.906250 	6484.075684 	40.399227
0.458000 	-73098.171875 	-79141.609375 	6043.437500 	37.653816
0.459000 	-72856.945312 	-79075.804688 	6218.857910 	38.746777
0.460000 	-71511.070312 	-79013.500000 	7502.426758 	46.744091
0.461000 	-72257.953125 	-79083.460938 	6825.508789 	42.526535
0.462000 	-72440.359375 	-79017.164062 	6576.801758 	40.976959
0.463000 	-70642.132812 	-78894.562500 	8252.431641 	51.417019
0.464000 	-71324.375000 	-78716.523438 	7392.145020 	46.056980
0.465000 	-70503.414062 	-78480.132812 	7976.717285 	49.699173
0.466000 	-70849.007812 	-78716.921875 	7867.916016 	49.021282
0.467000 	-73172.132812 	-78555.335938 	5383.199707 	33.540184
0.468000 	-70589.570312 	-78343.500000 	7753.932617 	48.311108
0.469000 	-72404.742188 	-78131.976562 	5727.236816 	35.683720
0.470000 	-70223.953125 	-77875.390625 	7651.437988 	47.672512
0.471000 	-69915.539062 	-78131.414062 	8215.876953 	51.189266
0.472000 	-69697.781250 	-77868.375000 	8170.596191 	50.907143
0.473000 	-70265.226562 	-77632.703125 	7367.474121 	45.903267
0.474000 	-72747.257812 	-77872.468750 	5125.208984 	31.932766
0.475000 	-69995.929688 	-78233.148438 	8237.219727 	51.322243
0.476000 	-70037.359375 	-77874.312500 	7836.952148 	48.828362
0.477000 	-72213.750000 	-77611.312500 	5397.565430 	33.629692
0.478000 	-71141.390625 	-77520.007812 	6378.619141 	39.742176
0.479000 	-71786.375000 	-77658.390625 	5872.015137 	36.585766
0.480000 	-71370.273438 	-77991.343750 	6621.070801 	41.252777
0.481000 	-70102.015625 	-77605.007812 	7502.995117 	46.747635
0.482000 	-68663.515625 	-78002.750000 	9339.231445 	58.188358
0.483000 	-71215.648438 	-78400.070312 	7184.422852 	44.762760
0.484000 	-71061.304688 	-77996.320312 	6935.014160 	43.208813
0.485000 	-69449.984375 	-78419.789062 	8969.802734 	55.886620
0.486000 	-72122.093750 	-78100.585938 	5978.493164 	37.249180
0.487000 	-72175.914062 	-78419.265625 	6243.349609 	38.899376
0.488000 	-70841.406250 	-78795.601562 	7954.196777 	49.558857
0.489000 	-71616.265625 	-79086.609375 	7470.347168 	46.544220
0.490000 	-70279.703125 	-79244.242188 	8964.541016 	55.853840
0.491000 	-72964.406250 	-79218.476562 	6254.073242 	38.966187
0.492000 	-72966.171875 	-79244.265625 	6278.097168 	39.115871
0.493000 	-72101.367188 	-79125.390625 	7024.022949 	43.763382
0.494000 	-72807.437500 	-78907.734375 	6100.300781 	38.008106
0.495000 	-72733.828125 	-78648.851562 	5915.021973 	36.853718
0.496000 	-71856.734375 	-78913.789062 	7057.051270 	43.969166
0.497000 	-72046.765625 	-78655.007812 	6608.242188 	41.172848
0.498000 	-69558.601562 	-78316.125000 	8757.521484 	54.563995
0.499000 	-69427.054688 	-77966.460938 	8539.404297 	53.205009
0.500000 	-70818.593750 	-78306.484375 	7487.887207 	46.653503
